# eye.nistx
# Attenuation data for (Eye Lens (ICRU-44)) obtained directly from the NIST website

# Material Name
Eye Lens (ICRU-44)

# Z/A
0.54709

# Mean excitation energy (eV)
74.3

# Density
1.070E+00

# Material composition (Z: weight fraction)
1: 0.096000
6: 0.195000
7: 0.057000
8: 0.646000
11: 0.001000
15: 0.001000
16: 0.003000
17: 0.001000

# Attenuation data
# Each row includes a photon energy, a mass attenuation coefficient, and a mass
# energy absorption coefficient
1.00000E-03  3.599E+03  3.588E+03 
1.03542E-03  3.282E+03  3.273E+03 
1.07210E-03  2.992E+03  2.984E+03 
11 K  1.07210E-03  2.998E+03  2.989E+03 
1.50000E-03  1.206E+03  1.203E+03 
2.00000E-03  5.386E+02  5.368E+02 
2.14550E-03  4.410E+02  4.393E+02 
15 K  2.14550E-03  4.432E+02  4.414E+02 
2.30297E-03  3.619E+02  3.603E+02 
2.47200E-03  2.952E+02  2.938E+02 
16 K  2.47200E-03  3.007E+02  2.989E+02 
2.64140E-03  2.485E+02  2.469E+02 
2.82240E-03  2.053E+02  2.038E+02 
17 K  2.82240E-03  2.067E+02  2.051E+02 
3.00000E-03  1.733E+02  1.719E+02 
4.00000E-03  7.446E+01  7.353E+01 
5.00000E-03  3.834E+01  3.764E+01 
6.00000E-03  2.221E+01  2.163E+01 
8.00000E-03  9.372E+00  8.931E+00 
1.00000E-02  4.829E+00  4.458E+00 
1.50000E-02  1.531E+00  1.242E+00 
2.00000E-02  7.510E-01  4.988E-01 
3.00000E-02  3.570E-01  1.421E-01 
4.00000E-02  2.590E-01  6.418E-02 
5.00000E-02  2.209E-01  3.961E-02 
6.00000E-02  2.013E-01  3.035E-02 
8.00000E-02  1.803E-01  2.518E-02 
1.00000E-01  1.679E-01  2.490E-02 
1.50000E-01  1.482E-01  2.719E-02 
2.00000E-01  1.350E-01  2.922E-02 
3.00000E-01  1.169E-01  3.146E-02 
4.00000E-01  1.046E-01  3.231E-02 
5.00000E-01  9.547E-02  3.252E-02 
6.00000E-01  8.827E-02  3.237E-02 
8.00000E-01  7.752E-02  3.160E-02 
1.00000E+00  6.969E-02  3.058E-02 
1.25000E+00  6.232E-02  2.922E-02 
1.50000E+00  5.671E-02  2.793E-02 
2.00000E+00  4.869E-02  2.570E-02 
3.00000E+00  3.908E-02  2.247E-02 
4.00000E+00  3.349E-02  2.033E-02 
5.00000E+00  2.981E-02  1.883E-02 
6.00000E+00  2.722E-02  1.774E-02 
8.00000E+00  2.383E-02  1.626E-02 
1.00000E+01  2.174E-02  1.534E-02 
1.50000E+01  1.896E-02  1.407E-02 
2.00000E+01  1.767E-02  1.346E-02 
