# testis.nistx
# Attenuation data for (Testis (ICRU-44)) obtained directly from the NIST website

# Material Name
Testis (ICRU-44)

# Z/A
0.55200

# Mean excitation energy (eV)
74.7

# Density
1.040E+00

# Material composition (Z: weight fraction)
1: 0.106000
6: 0.099000
7: 0.020000
8: 0.766000
11: 0.002000
15: 0.001000
16: 0.002000
17: 0.002000
19: 0.002000

# Attenuation data
# Each row includes a photon energy, a mass attenuation coefficient, and a mass
# energy absorption coefficient
1.00000E-03  3.824E+03  3.812E+03 
1.03542E-03  3.489E+03  3.479E+03 
1.07210E-03  3.182E+03  3.173E+03 
11 K  1.07210E-03  3.194E+03  3.184E+03 
1.50000E-03  1.291E+03  1.288E+03 
2.00000E-03  5.783E+02  5.763E+02 
2.14550E-03  4.737E+02  4.719E+02 
15 K  2.14550E-03  4.759E+02  4.740E+02 
2.30297E-03  3.889E+02  3.872E+02 
2.47200E-03  3.174E+02  3.159E+02 
16 K  2.47200E-03  3.211E+02  3.193E+02 
2.64140E-03  2.654E+02  2.638E+02 
2.82240E-03  2.193E+02  2.178E+02 
17 K  2.82240E-03  2.222E+02  2.205E+02 
3.00000E-03  1.864E+02  1.849E+02 
3.60740E-03  1.088E+02  1.077E+02 
19 K  3.60740E-03  1.109E+02  1.095E+02 
4.00000E-03  8.188E+01  8.071E+01 
5.00000E-03  4.229E+01  4.147E+01 
6.00000E-03  2.456E+01  2.391E+01 
8.00000E-03  1.039E+01  9.916E+00 
1.00000E-02  5.357E+00  4.967E+00 
1.50000E-02  1.689E+00  1.392E+00 
2.00000E-02  8.182E-01  5.606E-01 
3.00000E-02  3.778E-01  1.596E-01 
4.00000E-02  2.687E-01  7.125E-02 
5.00000E-02  2.266E-01  4.315E-02 
6.00000E-02  2.053E-01  3.240E-02 
8.00000E-02  1.828E-01  2.611E-02 
1.00000E-01  1.699E-01  2.547E-02 
1.50000E-01  1.497E-01  2.753E-02 
2.00000E-01  1.363E-01  2.952E-02 
3.00000E-01  1.180E-01  3.175E-02 
4.00000E-01  1.055E-01  3.261E-02 
5.00000E-01  9.633E-02  3.281E-02 
6.00000E-01  8.906E-02  3.266E-02 
8.00000E-01  7.822E-02  3.188E-02 
1.00000E+00  7.032E-02  3.086E-02 
1.25000E+00  6.288E-02  2.949E-02 
1.50000E+00  5.722E-02  2.818E-02 
2.00000E+00  4.914E-02  2.593E-02 
3.00000E+00  3.945E-02  2.268E-02 
4.00000E+00  3.382E-02  2.053E-02 
5.00000E+00  3.012E-02  1.903E-02 
6.00000E+00  2.752E-02  1.793E-02 
8.00000E+00  2.411E-02  1.646E-02 
1.00000E+01  2.202E-02  1.554E-02 
1.50000E+01  1.924E-02  1.428E-02 
2.00000E+01  1.796E-02  1.368E-02 
