# Gafchromic.nistx
# Attenuation data for (Gafchromic Sensor) obtained directly from the NIST website

# Material Name
Gafchromic Sensor

# Z/A
0.54384

# Mean excitation energy (eV)
67.2

# Density
1.300E+00

# Material composition (Z: weight fraction)
1: 0.089700
6: 0.605800
7: 0.112200
8: 0.192300

# Attenuation data
# Each row includes a photon energy, a mass attenuation coefficient, and a mass
# energy absorption coefficient
1.00000E-03  2.594E+03  2.589E+03 
1.50000E-03  8.437E+02  8.419E+02 
2.00000E-03  3.705E+02  3.693E+02 
3.00000E-03  1.129E+02  1.120E+02 
4.00000E-03  4.776E+01  4.713E+01 
5.00000E-03  2.436E+01  2.384E+01 
6.00000E-03  1.402E+01  1.357E+01 
8.00000E-03  5.892E+00  5.523E+00 
1.00000E-02  3.052E+00  2.728E+00 
1.50000E-02  1.014E+00  7.481E-01 
2.00000E-02  5.366E-01  2.990E-01 
3.00000E-02  2.943E-01  8.733E-02 
4.00000E-02  2.322E-01  4.248E-02 
5.00000E-02  2.066E-01  2.905E-02 
6.00000E-02  1.925E-01  2.448E-02 
8.00000E-02  1.759E-01  2.281E-02 
1.00000E-01  1.651E-01  2.368E-02 
1.50000E-01  1.467E-01  2.674E-02 
2.00000E-01  1.339E-01  2.894E-02 
3.00000E-01  1.161E-01  3.125E-02 
4.00000E-01  1.039E-01  3.212E-02 
5.00000E-01  9.487E-02  3.233E-02 
6.00000E-01  8.772E-02  3.218E-02 
8.00000E-01  7.704E-02  3.142E-02 
1.00000E+00  6.926E-02  3.040E-02 
1.25000E+00  6.194E-02  2.906E-02 
1.50000E+00  5.637E-02  2.778E-02 
2.00000E+00  4.835E-02  2.553E-02 
3.00000E+00  3.872E-02  2.227E-02 
4.00000E+00  3.308E-02  2.008E-02 
5.00000E+00  2.935E-02  1.853E-02 
6.00000E+00  2.672E-02  1.739E-02 
8.00000E+00  2.324E-02  1.583E-02 
1.00000E+01  2.108E-02  1.483E-02 
1.50000E+01  1.815E-02  1.344E-02 
2.00000E+01  1.675E-02  1.275E-02 
