# MercuricIodide.nistx
# Attenuation data for (Mercuric Iodide) obtained directly from the NIST website

# Material Name
Mercuric Iodide

# Z/A
0.40933

# Mean excitation energy (eV)
684.5

# Density
6.360E+00

# Material composition (Z: weight fraction)
53: 0.558560
80: 0.441440

# Attenuation data
# Each row includes a photon energy, a mass attenuation coefficient, and a mass
# energy absorption coefficient
1.00000E-03  7.213E+03  7.197E+03 
1.03542E-03  6.724E+03  6.709E+03 
1.07210E-03  6.258E+03  6.244E+03 
53 M1 1.07210E-03  6.446E+03  6.431E+03 
1.50000E-03  3.149E+03  3.137E+03 
2.00000E-03  1.638E+03  1.628E+03 
2.29490E-03  1.188E+03  1.178E+03 
80 M5 2.29490E-03  1.238E+03  1.227E+03 
2.33947E-03  1.384E+03  1.367E+03 
2.38490E-03  1.678E+03  1.652E+03 
80 M4 2.38490E-03  1.751E+03  1.722E+03 
2.60577E-03  1.582E+03  1.554E+03 
2.84710E-03  1.390E+03  1.364E+03 
80 M3 2.84710E-03  1.531E+03  1.502E+03 
3.00000E-03  1.349E+03  1.324E+03 
3.27850E-03  1.085E+03  1.064E+03 
80 M2 3.27850E-03  1.130E+03  1.109E+03 
3.41712E-03  1.024E+03  1.002E+03 
3.56160E-03  9.261E+02  9.081E+02 
80 M1 3.56160E-03  9.539E+02  9.354E+02 
4.00000E-03  7.218E+02  7.072E+02 
4.55710E-03  5.247E+02  5.132E+02 
53 L3 4.55710E-03  8.017E+02  7.693E+02 
4.70229E-03  7.500E+02  7.197E+02 
4.85210E-03  6.969E+02  6.690E+02 
53 L2 4.85210E-03  8.258E+02  7.866E+02 
5.00000E-03  7.741E+02  7.376E+02 
5.18810E-03  7.052E+02  6.726E+02 
53 L1 5.18810E-03  7.707E+02  7.332E+02 
6.00000E-03  5.385E+02  5.138E+02 
8.00000E-03  2.577E+02  2.463E+02 
1.00000E-02  1.447E+02  1.379E+02 
1.22839E-02  8.459E+01  8.001E+01 
80 L3 1.22839E-02  1.311E+02  1.133E+02 
1.32113E-02  1.079E+02  9.385E+01 
1.42087E-02  8.896E+01  7.778E+01 
80 L2 1.42087E-02  1.090E+02  9.059E+01 
1.45206E-02  1.035E+02  8.618E+01 
1.48393E-02  9.793E+01  8.172E+01 
80 L1 1.48393E-02  1.080E+02  8.910E+01 
1.50000E-02  1.050E+02  8.678E+01 
2.00000E-02  5.006E+01  4.254E+01 
3.00000E-02  1.732E+01  1.490E+01 
3.31694E-02  1.332E+01  1.143E+01 
53 K  3.31694E-02  2.967E+01  1.485E+01 
4.00000E-02  1.827E+01  1.041E+01 
5.00000E-02  1.019E+01  6.462E+00 
6.00000E-02  6.301E+00  4.236E+00 
8.00000E-02  2.958E+00  2.088E+00 
8.31023E-02  2.679E+00  1.897E+00 
80 K  8.31023E-02  5.508E+00  2.240E+00 
1.00000E-01  3.415E+00  1.651E+00 
1.50000E-01  1.232E+00  7.225E-01 
2.00000E-01  6.220E-01  3.785E-01 
3.00000E-01  2.682E-01  1.554E-01 
4.00000E-01  1.661E-01  8.937E-02 
5.00000E-01  1.228E-01  6.248E-02 
6.00000E-01  9.985E-02  4.909E-02 
8.00000E-01  7.601E-02  3.648E-02 
1.00000E+00  6.350E-02  3.058E-02 
1.25000E+00  5.421E-02  2.641E-02 
1.50000E+00  4.882E-02  2.407E-02 
2.00000E+00  4.323E-02  2.204E-02 
3.00000E+00  3.933E-02  2.171E-02 
4.00000E+00  3.856E-02  2.275E-02 
5.00000E+00  3.889E-02  2.402E-02 
6.00000E+00  3.967E-02  2.527E-02 
8.00000E+00  4.181E-02  2.747E-02 
1.00000E+01  4.415E-02  2.923E-02 
1.50000E+01  4.966E-02  3.206E-02 
2.00000E+01  5.410E-02  3.328E-02 
