# NylonRadiochromic.nistx
# Attenuation data for (Radiochromic Dye Film, Nylon Base) obtained directly from the NIST website

# Material Name
Radiochromic Dye Film, Nylon Base

# Z/A
0.54987

# Mean excitation energy (eV)
64.5

# Density
1.080E+00

# Material composition (Z: weight fraction)
1: 0.101996
6: 0.654396
7: 0.098915
8: 0.144693

# Attenuation data
# Each row includes a photon energy, a mass attenuation coefficient, and a mass
# energy absorption coefficient
1.00000E-03  2.439E+03  2.435E+03 
1.50000E-03  7.897E+02  7.880E+02 
2.00000E-03  3.458E+02  3.447E+02 
3.00000E-03  1.050E+02  1.042E+02 
4.00000E-03  4.435E+01  4.374E+01 
5.00000E-03  2.259E+01  2.209E+01 
6.00000E-03  1.300E+01  1.256E+01 
8.00000E-03  5.465E+00  5.102E+00 
1.00000E-02  2.837E+00  2.517E+00 
1.50000E-02  9.545E-01  6.891E-01 
2.00000E-02  5.132E-01  2.755E-01 
3.00000E-02  2.890E-01  8.108E-02 
4.00000E-02  2.312E-01  4.013E-02 
5.00000E-02  2.071E-01  2.802E-02 
6.00000E-02  1.936E-01  2.401E-02 
8.00000E-02  1.774E-01  2.278E-02 
1.00000E-01  1.666E-01  2.381E-02 
1.50000E-01  1.482E-01  2.701E-02 
2.00000E-01  1.353E-01  2.925E-02 
3.00000E-01  1.174E-01  3.159E-02 
4.00000E-01  1.051E-01  3.247E-02 
5.00000E-01  9.592E-02  3.268E-02 
6.00000E-01  8.869E-02  3.254E-02 
8.00000E-01  7.789E-02  3.177E-02 
1.00000E+00  7.003E-02  3.074E-02 
1.25000E+00  6.263E-02  2.939E-02 
1.50000E+00  5.699E-02  2.809E-02 
2.00000E+00  4.887E-02  2.582E-02 
3.00000E+00  3.912E-02  2.250E-02 
4.00000E+00  3.339E-02  2.027E-02 
5.00000E+00  2.960E-02  1.869E-02 
6.00000E+00  2.692E-02  1.752E-02 
8.00000E+00  2.338E-02  1.592E-02 
1.00000E+01  2.117E-02  1.489E-02 
1.50000E+01  1.817E-02  1.345E-02 
2.00000E+01  1.672E-02  1.272E-02 
