# StandardNuclearEmulsion.nistx
# Attenuation data for (Photographic Emulsion (Standard Nuclear)) obtained directly from the NIST website

# Material Name
Photographic Emulsion (Standard Nuclear)

# Z/A
0.45453

# Mean excitation energy (eV)
331.0

# Density
3.815E+00

# Material composition (Z: weight fraction)
1: 0.014100
6: 0.072261
7: 0.019320
8: 0.066101
16: 0.001890
35: 0.349104
47: 0.474105
53: 0.003120

# Attenuation data
# Each row includes a photon energy, a mass attenuation coefficient, and a mass
# energy absorption coefficient
1.00000E-03  4.813E+03  4.805E+03 
1.03542E-03  4.444E+03  4.436E+03 
1.07210E-03  4.101E+03  4.093E+03 
53 M1 1.07210E-03  4.102E+03  4.094E+03 
1.50000E-03  1.860E+03  1.854E+03 
1.54990E-03  1.720E+03  1.714E+03 
35 L3 1.54990E-03  2.894E+03  2.867E+03 
1.57278E-03  2.688E+03  2.664E+03 
1.59600E-03  2.554E+03  2.531E+03 
35 L2 1.59600E-03  3.081E+03  3.048E+03 
1.68644E-03  2.743E+03  2.714E+03 
1.78200E-03  2.381E+03  2.356E+03 
35 L1 1.78200E-03  2.564E+03  2.536E+03 
2.00000E-03  1.937E+03  1.917E+03 
2.47200E-03  1.143E+03  1.131E+03 
16 K  2.47200E-03  1.147E+03  1.134E+03 
3.00000E-03  7.017E+02  6.933E+02 
3.35110E-03  5.279E+02  5.210E+02 
47 L3 3.35110E-03  9.478E+02  9.196E+02 
3.43632E-03  8.905E+02  8.633E+02 
3.52370E-03  8.348E+02  8.105E+02 
47 L2 3.52370E-03  1.034E+03  9.987E+02 
3.66203E-03  9.393E+02  9.076E+02 
3.80580E-03  8.534E+02  8.252E+02 
47 L1 3.80580E-03  9.416E+02  9.092E+02 
4.00000E-03  8.342E+02  8.062E+02 
4.55710E-03  5.971E+02  5.783E+02 
53 L3 4.55710E-03  5.987E+02  5.797E+02 
4.70229E-03  5.516E+02  5.343E+02 
4.85210E-03  5.083E+02  4.925E+02 
53 L2 4.85210E-03  5.090E+02  4.931E+02 
5.00000E-03  4.708E+02  4.562E+02 
5.18810E-03  4.277E+02  4.146E+02 
53 L1 5.18810E-03  4.280E+02  4.149E+02 
6.00000E-03  2.926E+02  2.838E+02 
8.00000E-03  1.364E+02  1.320E+02 
1.00000E-02  7.494E+01  7.205E+01 
1.34737E-02  3.346E+01  3.168E+01 
35 K  1.34737E-02  7.721E+01  5.135E+01 
1.50000E-02  5.843E+01  4.040E+01 
2.00000E-02  2.729E+01  2.042E+01 
2.55140E-02  1.417E+01  1.105E+01 
47 K  2.55140E-02  3.591E+01  1.663E+01 
3.00000E-02  2.360E+01  1.256E+01 
3.31694E-02  1.809E+01  1.030E+01 
53 K  3.31694E-02  1.819E+01  1.032E+01 
4.00000E-02  1.102E+01  6.910E+00 
5.00000E-02  6.042E+00  4.103E+00 
6.00000E-02  3.693E+00  2.610E+00 
8.00000E-02  1.717E+00  1.238E+00 
1.00000E-01  9.710E-01  6.839E-01 
1.50000E-01  3.860E-01  2.355E-01 
2.00000E-01  2.294E-01  1.183E-01 
3.00000E-01  1.359E-01  5.609E-02 
4.00000E-01  1.053E-01  4.043E-02 
5.00000E-01  8.992E-02  3.449E-02 
6.00000E-01  8.027E-02  3.153E-02 
8.00000E-01  6.806E-02  2.842E-02 
1.00000E+00  6.019E-02  2.655E-02 
1.25000E+00  5.335E-02  2.481E-02 
1.50000E+00  4.863E-02  2.352E-02 
2.00000E+00  4.270E-02  2.192E-02 
3.00000E+00  3.700E-02  2.077E-02 
4.00000E+00  3.455E-02  2.072E-02 
5.00000E+00  3.344E-02  2.106E-02 
6.00000E+00  3.298E-02  2.153E-02 
8.00000E+00  3.306E-02  2.259E-02 
1.00000E+01  3.372E-02  2.358E-02 
1.50000E+01  3.592E-02  2.536E-02 
2.00000E+01  3.804E-02  2.634E-02 
